! FASCOD Model 5. Subarctic Winter Atmosphere                                  
! Transformed to RFM .atm file format by program USARFM v.23-AUG-96            
  50  ! No.Levels in profiles                                                  
*HGT [km]                               
       0.0,       1.0,       2.0,       3.0,       4.0,                        
       5.0,       6.0,       7.0,       8.0,       9.0,                        
      10.0,      11.0,      12.0,      13.0,      14.0,                        
      15.0,      16.0,      17.0,      18.0,      19.0,                        
      20.0,      21.0,      22.0,      23.0,      24.0,                        
      25.0,      27.5,      30.0,      32.5,      35.0,                        
      37.5,      40.0,      42.5,      45.0,      47.5,                        
      50.0,      55.0,      60.0,      65.0,      70.0,                        
      75.0,      80.0,      85.0,      90.0,      95.0,                        
     100.0,     105.0,     110.0,     115.0,     120.0                         
*PRE [mb]                               
 1.013E+03, 8.878E+02, 7.775E+02, 6.798E+02, 5.932E+02,                        
 5.158E+02, 4.467E+02, 3.853E+02, 3.308E+02, 2.829E+02,                        
 2.418E+02, 2.067E+02, 1.766E+02, 1.510E+02, 1.291E+02,                        
 1.103E+02, 9.431E+01, 8.058E+01, 6.882E+01, 5.875E+01,                        
 5.014E+01, 4.277E+01, 3.647E+01, 3.109E+01, 2.649E+01,                        
 2.256E+01, 1.513E+01, 1.020E+01, 6.910E+00, 4.701E+00,                        
 3.230E+00, 2.243E+00, 1.570E+00, 1.113E+00, 7.900E-01,                        
 5.719E-01, 2.990E-01, 1.550E-01, 7.900E-02, 4.000E-02,                        
 2.000E-02, 9.660E-03, 4.500E-03, 2.022E-03, 9.070E-04,                        
 4.230E-04, 2.070E-04, 1.080E-04, 6.000E-05, 3.590E-05                         
*TEM [K]                                
    257.20,    259.10,    255.90,    252.70,    247.70,                        
    240.90,    234.10,    227.30,    220.60,    217.20,                        
    217.20,    217.20,    217.20,    217.20,    217.20,                        
    217.20,    216.60,    216.00,    215.40,    214.80,                        
    214.20,    213.60,    213.00,    212.40,    211.80,                        
    211.20,    213.60,    216.00,    218.50,    222.30,                        
    228.50,    234.70,    240.80,    247.00,    253.20,                        
    259.30,    259.10,    250.90,    248.40,    245.40,                        
    234.70,    223.90,    213.10,    202.30,    211.00,                        
    218.50,    234.00,    252.60,    288.50,    333.00                         
*H2O [ppmv]                             
 1.405E+03, 1.615E+03, 1.427E+03, 1.166E+03, 7.898E+02,                        
 4.309E+02, 2.369E+02, 1.470E+02, 3.384E+01, 2.976E+01,                        
 2.000E+01, 1.000E+01, 6.000E+00, 4.450E+00, 4.500E+00,                        
 4.550E+00, 4.600E+00, 4.650E+00, 4.700E+00, 4.750E+00,                        
 4.800E+00, 4.850E+00, 4.900E+00, 4.950E+00, 5.000E+00,                        
 5.000E+00, 5.000E+00, 5.000E+00, 5.000E+00, 5.000E+00,                        
 5.000E+00, 5.000E+00, 5.000E+00, 5.000E+00, 5.000E+00,                        
 4.950E+00, 4.850E+00, 4.500E+00, 4.000E+00, 3.300E+00,                        
 2.700E+00, 2.000E+00, 1.330E+00, 8.500E-01, 5.400E-01,                        
 4.000E-01, 3.400E-01, 2.800E-01, 2.400E-01, 2.000E-01                         
*CO2 [ppmv]                             
 3.300E+02, 3.300E+02, 3.300E+02, 3.300E+02, 3.300E+02,                        
 3.300E+02, 3.300E+02, 3.300E+02, 3.300E+02, 3.300E+02,                        
 3.300E+02, 3.300E+02, 3.300E+02, 3.300E+02, 3.300E+02,                        
 3.300E+02, 3.300E+02, 3.300E+02, 3.300E+02, 3.300E+02,                        
 3.300E+02, 3.300E+02, 3.300E+02, 3.300E+02, 3.300E+02,                        
 3.300E+02, 3.300E+02, 3.300E+02, 3.300E+02, 3.300E+02,                        
 3.300E+02, 3.300E+02, 3.300E+02, 3.300E+02, 3.300E+02,                        
 3.300E+02, 3.300E+02, 3.300E+02, 3.300E+02, 3.300E+02,                        
 3.300E+02, 3.280E+02, 3.200E+02, 3.100E+02, 2.700E+02,                        
 1.950E+02, 1.100E+02, 6.000E+01, 4.000E+01, 3.500E+01                         
*O3  [ppmv]                             
 1.802E-02, 2.072E-02, 2.336E-02, 2.767E-02, 3.253E-02,                        
 3.801E-02, 4.446E-02, 7.252E-02, 1.040E-01, 2.100E-01,                        
 3.000E-01, 3.500E-01, 4.000E-01, 6.500E-01, 9.000E-01,                        
 1.200E+00, 1.500E+00, 1.900E+00, 2.450E+00, 3.100E+00,                        
 3.700E+00, 4.000E+00, 4.200E+00, 4.500E+00, 4.600E+00,                        
 4.700E+00, 4.900E+00, 5.400E+00, 5.900E+00, 6.200E+00,                        
 6.250E+00, 5.900E+00, 5.100E+00, 4.100E+00, 3.000E+00,                        
 2.600E+00, 1.600E+00, 9.500E-01, 6.500E-01, 5.000E-01,                        
 3.300E-01, 1.300E-01, 7.500E-01, 8.000E-01, 8.000E-01,                        
 4.000E-01, 2.000E-01, 5.000E-02, 5.000E-03, 5.000E-04                         
*N2O [ppmv]                             
 3.200E-01, 3.200E-01, 3.200E-01, 3.200E-01, 3.200E-01,                        
 3.200E-01, 3.200E-01, 3.200E-01, 3.195E-01, 3.163E-01,                        
 3.096E-01, 2.989E-01, 2.936E-01, 2.860E-01, 2.800E-01,                        
 2.724E-01, 2.611E-01, 2.421E-01, 2.174E-01, 1.843E-01,                        
 1.621E-01, 1.362E-01, 1.230E-01, 1.122E-01, 1.043E-01,                        
 9.570E-02, 8.598E-02, 7.314E-02, 5.710E-02, 4.670E-02,                        
 3.439E-02, 2.471E-02, 1.631E-02, 1.066E-02, 7.064E-03,                        
 3.972E-03, 2.508E-03, 1.726E-03, 1.260E-03, 9.602E-04,                        
 7.554E-04, 6.097E-04, 5.024E-04, 4.210E-04, 3.579E-04,                        
 3.080E-04, 2.678E-04, 2.350E-04, 2.079E-04, 1.851E-04                         
*CO  [ppmv]                             
 1.500E-01, 1.450E-01, 1.399E-01, 1.349E-01, 1.312E-01,                        
 1.303E-01, 1.288E-01, 1.247E-01, 1.185E-01, 1.094E-01,                        
 9.962E-02, 8.964E-02, 7.814E-02, 6.374E-02, 5.025E-02,                        
 3.941E-02, 3.069E-02, 2.489E-02, 1.966E-02, 1.549E-02,                        
 1.331E-02, 1.232E-02, 1.232E-02, 1.307E-02, 1.400E-02,                        
 1.521E-02, 1.722E-02, 2.037E-02, 2.486E-02, 3.168E-02,                        
 4.429E-02, 6.472E-02, 1.041E-01, 1.507E-01, 2.163E-01,                        
 3.141E-01, 4.842E-01, 7.147E-01, 1.067E+00, 1.516E+00,                        
 2.166E+00, 3.060E+00, 4.564E+00, 6.877E+00, 1.055E+01,                        
 1.710E+01, 2.473E+01, 3.359E+01, 4.149E+01, 5.000E+01                         
*CH4 [ppmv]                             
 1.700E+00, 1.700E+00, 1.700E+00, 1.700E+00, 1.697E+00,                        
 1.687E+00, 1.672E+00, 1.649E+00, 1.629E+00, 1.615E+00,                        
 1.579E+00, 1.542E+00, 1.506E+00, 1.471E+00, 1.434E+00,                        
 1.389E+00, 1.342E+00, 1.290E+00, 1.230E+00, 1.161E+00,                        
 1.084E+00, 1.014E+00, 9.561E-01, 9.009E-01, 8.479E-01,                        
 7.961E-01, 7.449E-01, 6.941E-01, 6.434E-01, 5.883E-01,                        
 5.238E-01, 4.505E-01, 3.708E-01, 3.004E-01, 2.453E-01,                        
 1.980E-01, 1.590E-01, 1.500E-01, 1.500E-01, 1.500E-01,                        
 1.500E-01, 1.500E-01, 1.500E-01, 1.400E-01, 1.300E-01,                        
 1.200E-01, 1.100E-01, 9.500E-02, 6.000E-02, 3.000E-02                         
*O2  [ppmv]                             
 2.090E+05, 2.090E+05, 2.090E+05, 2.090E+05, 2.090E+05,                        
 2.090E+05, 2.090E+05, 2.090E+05, 2.090E+05, 2.090E+05,                        
 2.090E+05, 2.090E+05, 2.090E+05, 2.090E+05, 2.090E+05,                        
 2.090E+05, 2.090E+05, 2.090E+05, 2.090E+05, 2.090E+05,                        
 2.090E+05, 2.090E+05, 2.090E+05, 2.090E+05, 2.090E+05,                        
 2.090E+05, 2.090E+05, 2.090E+05, 2.090E+05, 2.090E+05,                        
 2.090E+05, 2.090E+05, 2.090E+05, 2.090E+05, 2.090E+05,                        
 2.090E+05, 2.090E+05, 2.090E+05, 2.090E+05, 2.090E+05,                        
 2.090E+05, 2.090E+05, 2.000E+05, 1.900E+05, 1.800E+05,                        
 1.600E+05, 1.400E+05, 1.200E+05, 9.400E+04, 7.250E+04                         
*END
